      #    colat (rad)  colat (deg)
       0      3.14159      180.000
       1      3.13249      179.478
       2      3.12338      178.956
       3      3.11427      178.435
       4      3.10517      177.913
       5      3.09606      177.391
       6      3.08696      176.870
       7      3.07785      176.348
       8      3.06874      175.826
       9      3.05964      175.304
      10      3.05053      174.783
      11      3.04143      174.261
      12      3.03232      173.739
      13      3.02321      173.217
      14      3.01411      172.696
      15      3.00500      172.174
      16      2.99589      171.652
      17      2.98679      171.130
      18      2.97768      170.609
      19      2.96858      170.087
      20      2.95947      169.565
      21      2.95036      169.043
      22      2.94126      168.522
      23      2.93215      168.000
      24      2.92305      167.478
      25      2.91394      166.956
      26      2.90483      166.435
      27      2.89573      165.913
      28      2.88662      165.391
      29      2.87752      164.870
      30      2.86841      164.348
      31      2.85930      163.826
      32      2.85020      163.304
      33      2.84109      162.783
      34      2.83199      162.261
      35      2.82288      161.739
      36      2.81377      161.217
      37      2.80467      160.696
      38      2.79556      160.174
      39      2.78646      159.652
      40      2.77735      159.130
      41      2.76824      158.609
      42      2.75914      158.087
      43      2.75003      157.565
      44      2.74093      157.043
      45      2.73182      156.522
      46      2.72271      156.000
      47      2.70471      154.969
      48      2.68672      153.937
      49      2.66872      152.906
      50      2.65072      151.875
      51      2.63272      150.844
      52      2.61472      149.812
      53      2.59672      148.781
      54      2.57872      147.750
      55      2.56072      146.719
      56      2.54273      145.687
      57      2.52473      144.656
      58      2.50673      143.625
      59      2.48873      142.594
      60      2.47073      141.562
      61      2.45273      140.531
      62      2.43473      139.500
      63      2.41674      138.469
      64      2.39874      137.437
      65      2.38074      136.406
      66      2.36274      135.375
      67      2.34474      134.344
      68      2.32674      133.312
      69      2.30874      132.281
      70      2.29074      131.250
      71      2.27275      130.219
      72      2.25475      129.187
      73      2.23675      128.156
      74      2.21875      127.125
      75      2.20075      126.094
      76      2.18275      125.062
      77      2.16475      124.031
      78      2.14675      123.000
      79      2.12876      121.969
      80      2.11076      120.937
      81      2.09276      119.906
      82      2.07476      118.875
      83      2.05676      117.844
      84      2.03876      116.812
      85      2.02076      115.781
      86      2.00276      114.750
      87      1.98477      113.719
      88      1.96677      112.687
      89      1.94877      111.656
      90      1.93077      110.625
      91      1.91277      109.594
      92      1.89477      108.562
      93      1.87677      107.531
      94      1.85878      106.500
      95      1.84078      105.469
      96      1.82278      104.437
      97      1.80478      103.406
      98      1.78678      102.375
      99      1.76878      101.344
     100      1.75078      100.312
     101      1.73278      99.2812
     102      1.71479      98.2500
     103      1.69679      97.2187
     104      1.67879      96.1875
     105      1.66079      95.1562
     106      1.64279      94.1250
     107      1.62479      93.0937
     108      1.60679      92.0625
     109      1.58879      91.0312
     110      1.57080      90.0000
     111      1.55280      88.9687
     112      1.53480      87.9375
     113      1.51680      86.9062
     114      1.49880      85.8750
     115      1.48080      84.8437
     116      1.46280      83.8125
     117      1.44481      82.7812
     118      1.42681      81.7500
     119      1.40881      80.7187
     120      1.39081      79.6875
     121      1.37281      78.6562
     122      1.35481      77.6250
     123      1.33681      76.5937
     124      1.31881      75.5625
     125      1.30082      74.5312
     126      1.28282      73.5000
     127      1.26482      72.4687
     128      1.24682      71.4375
     129      1.22882      70.4062
     130      1.21082      69.3750
     131      1.19282      68.3437
     132      1.17482      67.3125
     133      1.15683      66.2812
     134      1.13883      65.2500
     135      1.12083      64.2187
     136      1.10283      63.1875
     137      1.08483      62.1562
     138      1.06683      61.1250
     139      1.04883      60.0937
     140      1.03083      59.0625
     141      1.01284      58.0312
     142     0.994837      57.0000
     143     0.976839      55.9687
     144     0.958840      54.9375
     145     0.940841      53.9062
     146     0.922843      52.8750
     147     0.904844      51.8437
     148     0.886845      50.8125
     149     0.868847      49.7812
     150     0.850848      48.7500
     151     0.832849      47.7187
     152     0.814850      46.6875
     153     0.796852      45.6562
     154     0.778853      44.6250
     155     0.760854      43.5937
     156     0.742856      42.5625
     157     0.724857      41.5312
     158     0.706858      40.5000
     159     0.688859      39.4687
     160     0.670861      38.4375
     161     0.652862      37.4062
     162     0.634863      36.3750
     163     0.616865      35.3437
     164     0.598866      34.3125
     165     0.580867      33.2812
     166     0.562869      32.2500
     167     0.544870      31.2187
     168     0.526871      30.1875
     169     0.508872      29.1562
     170     0.490874      28.1250
     171     0.472875      27.0937
     172     0.454876      26.0625
     173     0.436878      25.0312
     174     0.418879      24.0000
     175     0.409773      23.4783
     176     0.400667      22.9565
     177     0.391561      22.4348
     178     0.382455      21.9130
     179     0.373349      21.3913
     180     0.364243      20.8696
     181     0.355136      20.3478
     182     0.346030      19.8261
     183     0.336924      19.3043
     184     0.327818      18.7826
     185     0.318712      18.2609
     186     0.309606      17.7391
     187     0.300500      17.2174
     188     0.291394      16.6956
     189     0.282288      16.1739
     190     0.273182      15.6522
     191     0.264076      15.1304
     192     0.254970      14.6087
     193     0.245864      14.0870
     194     0.236758      13.5652
     195     0.227652      13.0435
     196     0.218546      12.5217
     197     0.209439      12.0000
     198     0.200333      11.4783
     199     0.191227      10.9565
     200     0.182121      10.4348
     201     0.173015      9.91304
     202     0.163909      9.39130
     203     0.154803      8.86956
     204     0.145697      8.34782
     205     0.136591      7.82608
     206     0.127485      7.30435
     207     0.118379      6.78261
     208     0.109273      6.26087
     209     0.100167      5.73913
     210    0.0910606      5.21739
     211    0.0819546      4.69565
     212    0.0728485      4.17391
     213    0.0637425      3.65217
     214    0.0546364      3.13043
     215    0.0455303      2.60869
     216    0.0364242      2.08696
     217    0.0273182      1.56522
     218    0.0182121      1.04348
     219   0.00910607     0.521739
     220      0.00000      0.00000
